wavelength,value
4000.00,0.7630
3999.00,0.7627
3998.00,0.7624
3997.00,0.7622
3996.00,0.7621
3995.00,0.7620
3994.00,0.7619
3993.00,0.7617
3992.00,0.7614
3991.00,0.7611
3990.00,0.7608
3989.00,0.7606
3988.00,0.7605
3987.00,0.7606
3986.00,0.7608
3985.00,0.7610
3984.00,0.7610
3983.00,0.7608
3982.00,0.7604
3981.00,0.7599
3980.00,0.7595
3979.00,0.7593
3978.00,0.7593
3977.00,0.7592
3976.00,0.7589
3975.00,0.7585
3974.00,0.7581
3973.00,0.7578
3972.00,0.7575
3971.00,0.7572
3970.00,0.7569
3969.00,0.7565
3968.00,0.7562
3967.00,0.7559
3966.00,0.7557
3965.00,0.7556
3964.00,0.7554
3963.00,0.7552
3962.00,0.7550
3961.00,0.7548
3960.00,0.7546
3959.00,0.7545
3958.00,0.7543
3957.00,0.7540
3956.00,0.7538
3955.00,0.7536
3954.00,0.7534
3953.00,0.7532
3952.00,0.7530
3951.00,0.7530
3950.00,0.7529
3949.00,0.7526
3948.00,0.7521
3947.00,0.7518
3946.00,0.7516
3945.00,0.7514
3944.00,0.7511
3943.00,0.7509
3942.00,0.7507
3941.00,0.7506
3940.00,0.7505
3939.00,0.7502
3938.00,0.7500
3937.00,0.7500
3936.00,0.7502
3935.00,0.7505
3934.00,0.7506
3933.00,0.7504
3932.00,0.7497
3931.00,0.7488
3930.00,0.7480
3929.00,0.7474
3928.00,0.7472
3927.00,0.7472
3926.00,0.7471
3925.00,0.7468
3924.00,0.7464
3923.00,0.7462
3922.00,0.7460
3921.00,0.7457
3920.00,0.7454
3919.00,0.7451
3918.00,0.7446
3917.00,0.7440
3916.00,0.7436
3915.00,0.7433
3914.00,0.7431
3913.00,0.7428
3912.00,0.7426
3911.00,0.7424
3910.00,0.7423
3909.00,0.7424
3908.00,0.7423
3907.00,0.7422
3906.00,0.7420
3905.00,0.7415
3904.00,0.7407
3903.00,0.7402
3902.00,0.7400
3901.00,0.7398
3900.00,0.7394
3899.00,0.7393
3898.00,0.7392
3897.00,0.7389
3896.00,0.7386
3895.00,0.7385
3894.00,0.7385
3893.00,0.7384
3892.00,0.7382
3891.00,0.7381
3890.00,0.7381
3889.00,0.7379
3888.00,0.7378
3887.00,0.7380
3886.00,0.7385
3885.00,0.7387
3884.00,0.7385
3883.00,0.7377
3882.00,0.7367
3881.00,0.7356
3880.00,0.7349
3879.00,0.7347
3878.00,0.7345
3877.00,0.7343
3876.00,0.7340
3875.00,0.7336
3874.00,0.7331
3873.00,0.7330
3872.00,0.7330
3871.00,0.7326
3870.00,0.7321
3869.00,0.7321
3868.00,0.7325
3867.00,0.7324
3866.00,0.7321
3865.00,0.7316
3864.00,0.7311
3863.00,0.7310
3862.00,0.7310
3861.00,0.7307
3860.00,0.7306
3859.00,0.7305
3858.00,0.7305
3857.00,0.7305
3856.00,0.7306
3855.00,0.7306
3854.00,0.7295
3853.00,0.7286
3852.00,0.7296
3851.00,0.7298
3850.00,0.7292
3849.00,0.7285
3848.00,0.7284
3847.00,0.7288
3846.00,0.7294
3845.00,0.7296
3844.00,0.7294
3843.00,0.7288
3842.00,0.7283
3841.00,0.7276
3840.00,0.7271
3839.00,0.7273
3838.00,0.7283
3837.00,0.7292
3836.00,0.7295
3835.00,0.7290
3834.00,0.7279
3833.00,0.7267
3832.00,0.7259
3831.00,0.7257
3830.00,0.7256
3829.00,0.7253
3828.00,0.7248
3827.00,0.7245
3826.00,0.7244
3825.00,0.7245
3824.00,0.7247
3823.00,0.7250
3822.00,0.7249
3821.00,0.7248
3820.00,0.7254
3819.00,0.7258
3818.00,0.7256
3817.00,0.7251
3816.00,0.7245
3815.00,0.7242
3814.00,0.7235
3813.00,0.7225
3812.00,0.7218
3811.00,0.7216
3810.00,0.7219
3809.00,0.7223
3808.00,0.7227
3807.00,0.7228
3806.00,0.7229
3805.00,0.7226
3804.00,0.7222
3803.00,0.7218
3802.00,0.7212
3801.00,0.7213
3800.00,0.7219
3799.00,0.7218
3798.00,0.7212
3797.00,0.7206
3796.00,0.7203
3795.00,0.7202
3794.00,0.7200
3793.00,0.7198
3792.00,0.7198
3791.00,0.7200
3790.00,0.7201
3789.00,0.7200
3788.00,0.7198
3787.00,0.7197
3786.00,0.7194
3785.00,0.7191
3784.00,0.7189
3783.00,0.7189
3782.00,0.7192
3781.00,0.7197
3780.00,0.7201
3779.00,0.7203
3778.00,0.7201
3777.00,0.7194
3776.00,0.7187
3775.00,0.7182
3774.00,0.7181
3773.00,0.7183
3772.00,0.7185
3771.00,0.7188
3770.00,0.7190
3769.00,0.7190
3768.00,0.7188
3767.00,0.7184
3766.00,0.7180
3765.00,0.7178
3764.00,0.7179
3763.00,0.7179
3762.00,0.7180
3761.00,0.7181
3760.00,0.7181
3759.00,0.7181
3758.00,0.7180
3757.00,0.7179
3756.00,0.7180
3755.00,0.7183
3754.00,0.7187
3753.00,0.7187
3752.00,0.7179
3751.00,0.7167
3750.00,0.7168
3749.00,0.7178
3748.00,0.7185
3747.00,0.7187
3746.00,0.7186
3745.00,0.7184
3744.00,0.7192
3743.00,0.7204
3742.00,0.7205
3741.00,0.7201
3740.00,0.7203
3739.00,0.7212
3738.00,0.7225
3737.00,0.7232
3736.00,0.7226
3735.00,0.7215
3734.00,0.7207
3733.00,0.7200
3732.00,0.7194
3731.00,0.7191
3730.00,0.7189
3729.00,0.7186
3728.00,0.7183
3727.00,0.7182
3726.00,0.7183
3725.00,0.7184
3724.00,0.7184
3723.00,0.7184
3722.00,0.7185
3721.00,0.7186
3720.00,0.7187
3719.00,0.7189
3718.00,0.7193
3717.00,0.7198
3716.00,0.7203
3715.00,0.7208
3714.00,0.7213
3713.00,0.7216
3712.00,0.7215
3711.00,0.7217
3710.00,0.7222
3709.00,0.7223
3708.00,0.7222
3707.00,0.7223
3706.00,0.7225
3705.00,0.7228
3704.00,0.7232
3703.00,0.7237
3702.00,0.7241
3701.00,0.7246
3700.00,0.7251
3699.00,0.7257
3698.00,0.7265
3697.00,0.7275
3696.00,0.7285
3695.00,0.7295
3694.00,0.7304
3693.00,0.7313
3692.00,0.7324
3691.00,0.7341
3690.00,0.7362
3689.00,0.7382
3688.00,0.7392
3687.00,0.7390
3686.00,0.7382
3685.00,0.7377
3684.00,0.7377
3683.00,0.7382
3682.00,0.7389
3681.00,0.7396
3680.00,0.7405
3679.00,0.7416
3678.00,0.7426
3677.00,0.7433
3676.00,0.7443
3675.00,0.7469
3674.00,0.7497
3673.00,0.7505
3672.00,0.7506
3671.00,0.7511
3670.00,0.7525
3669.00,0.7549
3668.00,0.7565
3667.00,0.7572
3666.00,0.7578
3665.00,0.7587
3664.00,0.7600
3663.00,0.7616
3662.00,0.7637
3661.00,0.7659
3660.00,0.7682
3659.00,0.7701
3658.00,0.7716
3657.00,0.7727
3656.00,0.7740
3655.00,0.7755
3654.00,0.7769
3653.00,0.7783
3652.00,0.7803
3651.00,0.7826
3650.00,0.7847
3649.00,0.7861
3648.00,0.7877
3647.00,0.7897
3646.00,0.7915
3645.00,0.7928
3644.00,0.7940
3643.00,0.7953
3642.00,0.7970
3641.00,0.7989
3640.00,0.8008
3639.00,0.8027
3638.00,0.8047
3637.00,0.8068
3636.00,0.8089
3635.00,0.8111
3634.00,0.8133
3633.00,0.8153
3632.00,0.8170
3631.00,0.8184
3630.00,0.8197
3629.00,0.8220
3628.00,0.8261
3627.00,0.8296
3626.00,0.8316
3625.00,0.8332
3624.00,0.8350
3623.00,0.8372
3622.00,0.8395
3621.00,0.8416
3620.00,0.8437
3619.00,0.8460
3618.00,0.8487
3617.00,0.8509
3616.00,0.8527
3615.00,0.8545
3614.00,0.8562
3613.00,0.8581
3612.00,0.8603
3611.00,0.8625
3610.00,0.8645
3609.00,0.8664
3608.00,0.8689
3607.00,0.8720
3606.00,0.8752
3605.00,0.8778
3604.00,0.8801
3603.00,0.8823
3602.00,0.8846
3601.00,0.8872
3600.00,0.8900
3599.00,0.8925
3598.00,0.8943
3597.00,0.8953
3596.00,0.8965
3595.00,0.8988
3594.00,0.9019
3593.00,0.9050
3592.00,0.9075
3591.00,0.9094
3590.00,0.9111
3589.00,0.9129
3588.00,0.9159
3587.00,0.9204
3586.00,0.9247
3585.00,0.9272
3584.00,0.9287
3583.00,0.9300
3582.00,0.9314
3581.00,0.9328
3580.00,0.9343
3579.00,0.9360
3578.00,0.9378
3577.00,0.9396
3576.00,0.9414
3575.00,0.9432
3574.00,0.9452
3573.00,0.9474
3572.00,0.9499
3571.00,0.9526
3570.00,0.9551
3569.00,0.9570
3568.00,0.9578
3567.00,0.9587
3566.00,0.9610
3565.00,0.9641
3564.00,0.9672
3563.00,0.9703
3562.00,0.9730
3561.00,0.9751
3560.00,0.9766
3559.00,0.9777
3558.00,0.9789
3557.00,0.9801
3556.00,0.9812
3555.00,0.9824
3554.00,0.9837
3553.00,0.9854
3552.00,0.9875
3551.00,0.9891
3550.00,0.9900
3549.00,0.9903
3548.00,0.9907
3547.00,0.9917
3546.00,0.9930
3545.00,0.9938
3544.00,0.9936
3543.00,0.9926
3542.00,0.9911
3541.00,0.9894
3540.00,0.9880
3539.00,0.9871
3538.00,0.9868
3537.00,0.9868
3536.00,0.9865
3535.00,0.9858
3534.00,0.9848
3533.00,0.9840
3532.00,0.9835
3531.00,0.9835
3530.00,0.9839
3529.00,0.9847
3528.00,0.9858
3527.00,0.9874
3526.00,0.9896
3525.00,0.9920
3524.00,0.9942
3523.00,0.9961
3522.00,0.9972
3521.00,0.9977
3520.00,0.9981
3519.00,0.9989
3518.00,1.0002
3517.00,1.0019
3516.00,1.0040
3515.00,1.0062
3514.00,1.0084
3513.00,1.0101
3512.00,1.0111
3511.00,1.0118
3510.00,1.0126
3509.00,1.0138
3508.00,1.0156
3507.00,1.0176
3506.00,1.0198
3505.00,1.0225
3504.00,1.0257
3503.00,1.0291
3502.00,1.0318
3501.00,1.0337
3500.00,1.0352
3499.00,1.0370
3498.00,1.0392
3497.00,1.0413
3496.00,1.0432
3495.00,1.0448
3494.00,1.0460
3493.00,1.0468
3492.00,1.0476
3491.00,1.0487
3490.00,1.0503
3489.00,1.0523
3488.00,1.0545
3487.00,1.0564
3486.00,1.0573
3485.00,1.0572
3484.00,1.0568
3483.00,1.0569
3482.00,1.0581
3481.00,1.0600
3480.00,1.0617
3479.00,1.0626
3478.00,1.0625
3477.00,1.0616
3476.00,1.0603
3475.00,1.0593
3474.00,1.0587
3473.00,1.0586
3472.00,1.0588
3471.00,1.0594
3470.00,1.0603
3469.00,1.0611
3468.00,1.0614
3467.00,1.0610
3466.00,1.0600
3465.00,1.0583
3464.00,1.0563
3463.00,1.0545
3462.00,1.0535
3461.00,1.0529
3460.00,1.0522
3459.00,1.0510
3458.00,1.0492
3457.00,1.0471
3456.00,1.0453
3455.00,1.0439
3454.00,1.0428
3453.00,1.0419
3452.00,1.0411
3451.00,1.0404
3450.00,1.0401
3449.00,1.0401
3448.00,1.0402
3447.00,1.0401
3446.00,1.0396
3445.00,1.0388
3444.00,1.0381
3443.00,1.0377
3442.00,1.0377
3441.00,1.0380
3440.00,1.0388
3439.00,1.0404
3438.00,1.0423
3437.00,1.0442
3436.00,1.0457
3435.00,1.0469
3434.00,1.0479
3433.00,1.0489
3432.00,1.0502
3431.00,1.0518
3430.00,1.0533
3429.00,1.0546
3428.00,1.0554
3427.00,1.0562
3426.00,1.0570
3425.00,1.0578
3424.00,1.0589
3423.00,1.0605
3422.00,1.0626
3421.00,1.0647
3420.00,1.0662
3419.00,1.0668
3418.00,1.0670
3417.00,1.0670
3416.00,1.0676
3415.00,1.0685
3414.00,1.0694
3413.00,1.0695
3412.00,1.0685
3411.00,1.0669
3410.00,1.0648
3409.00,1.0623
3408.00,1.0592
3407.00,1.0556
3406.00,1.0519
3405.00,1.0483
3404.00,1.0452
3403.00,1.0425
3402.00,1.0401
3401.00,1.0374
3400.00,1.0342
3399.00,1.0305
3398.00,1.0264
3397.00,1.0223
3396.00,1.0186
3395.00,1.0157
3394.00,1.0131
3393.00,1.0106
3392.00,1.0077
3391.00,1.0045
3390.00,1.0010
3389.00,0.9972
3388.00,0.9933
3387.00,0.9897
3386.00,0.9864
3385.00,0.9833
3384.00,0.9804
3383.00,0.9780
3382.00,0.9761
3381.00,0.9742
3380.00,0.9721
3379.00,0.9699
3378.00,0.9675
3377.00,0.9651
3376.00,0.9626
3375.00,0.9600
3374.00,0.9575
3373.00,0.9551
3372.00,0.9530
3371.00,0.9510
3370.00,0.9488
3369.00,0.9465
3368.00,0.9440
3367.00,0.9414
3366.00,0.9384
3365.00,0.9351
3364.00,0.9314
3363.00,0.9281
3362.00,0.9252
3361.00,0.9226
3360.00,0.9200
3359.00,0.9171
3358.00,0.9139
3357.00,0.9107
3356.00,0.9075
3355.00,0.9047
3354.00,0.9023
3353.00,0.9002
3352.00,0.8983
3351.00,0.8963
3350.00,0.8939
3349.00,0.8911
3348.00,0.8879
3347.00,0.8848
3346.00,0.8821
3345.00,0.8797
3344.00,0.8774
3343.00,0.8752
3342.00,0.8729
3341.00,0.8706
3340.00,0.8684
3339.00,0.8664
3338.00,0.8643
3337.00,0.8618
3336.00,0.8589
3335.00,0.8560
3334.00,0.8532
3333.00,0.8507
3332.00,0.8483
3331.00,0.8461
3330.00,0.8441
3329.00,0.8422
3328.00,0.8404
3327.00,0.8389
3326.00,0.8374
3325.00,0.8357
3324.00,0.8336
3323.00,0.8313
3322.00,0.8290
3321.00,0.8267
3320.00,0.8246
3319.00,0.8227
3318.00,0.8209
3317.00,0.8192
3316.00,0.8176
3315.00,0.8161
3314.00,0.8147
3313.00,0.8131
3312.00,0.8116
3311.00,0.8102
3310.00,0.8090
3309.00,0.8077
3308.00,0.8063
3307.00,0.8049
3306.00,0.8036
3305.00,0.8022
3304.00,0.8006
3303.00,0.7989
3302.00,0.7973
3301.00,0.7955
3300.00,0.7939
3299.00,0.7924
3298.00,0.7912
3297.00,0.7902
3296.00,0.7893
3295.00,0.7884
3294.00,0.7874
3293.00,0.7864
3292.00,0.7853
3291.00,0.7841
3290.00,0.7828
3289.00,0.7814
3288.00,0.7799
3287.00,0.7785
3286.00,0.7773
3285.00,0.7763
3284.00,0.7752
3283.00,0.7742
3282.00,0.7733
3281.00,0.7722
3280.00,0.7711
3279.00,0.7700
3278.00,0.7690
3277.00,0.7680
3276.00,0.7670
3275.00,0.7661
3274.00,0.7652
3273.00,0.7643
3272.00,0.7635
3271.00,0.7626
3270.00,0.7616
3269.00,0.7604
3268.00,0.7591
3267.00,0.7579
3266.00,0.7568
3265.00,0.7558
3264.00,0.7549
3263.00,0.7540
3262.00,0.7531
3261.00,0.7522
3260.00,0.7513
3259.00,0.7507
3258.00,0.7502
3257.00,0.7497
3256.00,0.7490
3255.00,0.7482
3254.00,0.7472
3253.00,0.7461
3252.00,0.7449
3251.00,0.7440
3250.00,0.7433
3249.00,0.7428
3248.00,0.7424
3247.00,0.7421
3246.00,0.7418
3245.00,0.7414
3244.00,0.7409
3243.00,0.7403
3242.00,0.7399
3241.00,0.7394
3240.00,0.7388
3239.00,0.7382
3238.00,0.7375
3237.00,0.7367
3236.00,0.7358
3235.00,0.7349
3234.00,0.7339
3233.00,0.7327
3232.00,0.7310
3231.00,0.7291
3230.00,0.7269
3229.00,0.7247
3228.00,0.7224
3227.00,0.7201
3226.00,0.7178
3225.00,0.7155
3224.00,0.7131
3223.00,0.7109
3222.00,0.7088
3221.00,0.7069
3220.00,0.7049
3219.00,0.7030
3218.00,0.7010
3217.00,0.6989
3216.00,0.6968
3215.00,0.6949
3214.00,0.6932
3213.00,0.6914
3212.00,0.6895
3211.00,0.6876
3210.00,0.6859
3209.00,0.6842
3208.00,0.6827
3207.00,0.6812
3206.00,0.6798
3205.00,0.6782
3204.00,0.6766
3203.00,0.6749
3202.00,0.6732
3201.00,0.6716
3200.00,0.6701
3199.00,0.6687
3198.00,0.6673
3197.00,0.6659
3196.00,0.6644
3195.00,0.6630
3194.00,0.6617
3193.00,0.6604
3192.00,0.6590
3191.00,0.6577
3190.00,0.6563
3189.00,0.6550
3188.00,0.6536
3187.00,0.6522
3186.00,0.6509
3185.00,0.6495
3184.00,0.6482
3183.00,0.6468
3182.00,0.6455
3181.00,0.6442
3180.00,0.6429
3179.00,0.6416
3178.00,0.6404
3177.00,0.6391
3176.00,0.6377
3175.00,0.6364
3174.00,0.6352
3173.00,0.6339
3172.00,0.6327
3171.00,0.6314
3170.00,0.6303
3169.00,0.6291
3168.00,0.6279
3167.00,0.6268
3166.00,0.6258
3165.00,0.6246
3164.00,0.6234
3163.00,0.6223
3162.00,0.6211
3161.00,0.6200
3160.00,0.6189
3159.00,0.6179
3158.00,0.6170
3157.00,0.6162
3156.00,0.6155
3155.00,0.6148
3154.00,0.6141
3153.00,0.6133
3152.00,0.6122
3151.00,0.6110
3150.00,0.6097
3149.00,0.6084
3148.00,0.6071
3147.00,0.6060
3146.00,0.6050
3145.00,0.6040
3144.00,0.6031
3143.00,0.6023
3142.00,0.6016
3141.00,0.6010
3140.00,0.6003
3139.00,0.5995
3138.00,0.5985
3137.00,0.5974
3136.00,0.5963
3135.00,0.5952
3134.00,0.5943
3133.00,0.5935
3132.00,0.5927
3131.00,0.5920
3130.00,0.5912
3129.00,0.5904
3128.00,0.5894
3127.00,0.5885
3126.00,0.5876
3125.00,0.5869
3124.00,0.5863
3123.00,0.5858
3122.00,0.5854
3121.00,0.5849
3120.00,0.5843
3119.00,0.5836
3118.00,0.5829
3117.00,0.5821
3116.00,0.5813
3115.00,0.5804
3114.00,0.5796
3113.00,0.5787
3112.00,0.5778
3111.00,0.5770
3110.00,0.5764
3109.00,0.5759
3108.00,0.5752
3107.00,0.5743
3106.00,0.5735
3105.00,0.5727
3104.00,0.5719
3103.00,0.5713
3102.00,0.5708
3101.00,0.5703
3100.00,0.5698
3099.00,0.5692
3098.00,0.5684
3097.00,0.5676
3096.00,0.5668
3095.00,0.5660
3094.00,0.5655
3093.00,0.5650
3092.00,0.5647
3091.00,0.5644
3090.00,0.5641
3089.00,0.5637
3088.00,0.5632
3087.00,0.5626
3086.00,0.5621
3085.00,0.5616
3084.00,0.5611
3083.00,0.5607
3082.00,0.5602
3081.00,0.5598
3080.00,0.5593
3079.00,0.5589
3078.00,0.5583
3077.00,0.5578
3076.00,0.5571
3075.00,0.5564
3074.00,0.5558
3073.00,0.5552
3072.00,0.5547
3071.00,0.5543
3070.00,0.5540
3069.00,0.5539
3068.00,0.5538
3067.00,0.5535
3066.00,0.5531
3065.00,0.5526
3064.00,0.5520
3063.00,0.5515
3062.00,0.5510
3061.00,0.5506
3060.00,0.5502
3059.00,0.5499
3058.00,0.5498
3057.00,0.5496
3056.00,0.5495
3055.00,0.5493
3054.00,0.5490
3053.00,0.5488
3052.00,0.5486
3051.00,0.5485
3050.00,0.5483
3049.00,0.5482
3048.00,0.5479
3047.00,0.5477
3046.00,0.5476
3045.00,0.5474
3044.00,0.5473
3043.00,0.5472
3042.00,0.5471
3041.00,0.5470
3040.00,0.5467
3039.00,0.5464
3038.00,0.5463
3037.00,0.5463
3036.00,0.5464
3035.00,0.5466
3034.00,0.5469
3033.00,0.5471
3032.00,0.5473
3031.00,0.5474
3030.00,0.5475
3029.00,0.5475
3028.00,0.5475
3027.00,0.5477
3026.00,0.5481
3025.00,0.5486
3024.00,0.5491
3023.00,0.5496
3022.00,0.5502
3021.00,0.5509
3020.00,0.5517
3019.00,0.5526
3018.00,0.5535
3017.00,0.5545
3016.00,0.5556
3015.00,0.5568
3014.00,0.5581
3013.00,0.5593
3012.00,0.5605
3011.00,0.5617
3010.00,0.5630
3009.00,0.5642
3008.00,0.5655
3007.00,0.5668
3006.00,0.5684
3005.00,0.5700
3004.00,0.5717
3003.00,0.5734
3002.00,0.5750
3001.00,0.5767
3000.00,0.5785
2999.00,0.5803
2998.00,0.5820
2997.00,0.5837
2996.00,0.5851
2995.00,0.5866
2994.00,0.5880
2993.00,0.5894
2992.00,0.5906
2991.00,0.5917
2990.00,0.5926
2989.00,0.5933
2988.00,0.5940
2987.00,0.5945
2986.00,0.5951
2985.00,0.5956
2984.00,0.5962
2983.00,0.5968
2982.00,0.5974
2981.00,0.5978
2980.00,0.5980
2979.00,0.5980
2978.00,0.5979
2977.00,0.5979
2976.00,0.5978
2975.00,0.5978
2974.00,0.5978
2973.00,0.5977
2972.00,0.5975
2971.00,0.5973
2970.00,0.5972
2969.00,0.5971
2968.00,0.5971
2967.00,0.5971
2966.00,0.5973
2965.00,0.5975
2964.00,0.5978
2963.00,0.5981
2962.00,0.5983
2961.00,0.5985
2960.00,0.5987
2959.00,0.5989
2958.00,0.5993
2957.00,0.5998
2956.00,0.6002
2955.00,0.6008
2954.00,0.6015
2953.00,0.6022
2952.00,0.6028
2951.00,0.6033
2950.00,0.6039
2949.00,0.6045
2948.00,0.6051
2947.00,0.6058
2946.00,0.6064
2945.00,0.6070
2944.00,0.6073
2943.00,0.6076
2942.00,0.6078
2941.00,0.6079
2940.00,0.6079
2939.00,0.6079
2938.00,0.6078
2937.00,0.6077
2936.00,0.6075
2935.00,0.6073
2934.00,0.6071
2933.00,0.6069
2932.00,0.6067
2931.00,0.6066
2930.00,0.6064
2929.00,0.6060
2928.00,0.6055
2927.00,0.6050
2926.00,0.6045
2925.00,0.6040
2924.00,0.6036
2923.00,0.6032
2922.00,0.6028
2921.00,0.6025
2920.00,0.6023
2919.00,0.6021
2918.00,0.6019
2917.00,0.6017
2916.00,0.6012
2915.00,0.6006
2914.00,0.6000
2913.00,0.5994
2912.00,0.5988
2911.00,0.5983
2910.00,0.5977
2909.00,0.5971
2908.00,0.5965
2907.00,0.5959
2906.00,0.5955
2905.00,0.5950
2904.00,0.5944
2903.00,0.5938
2902.00,0.5931
2901.00,0.5925
2900.00,0.5919
2899.00,0.5913
2898.00,0.5907
2897.00,0.5900
2896.00,0.5893
2895.00,0.5884
2894.00,0.5875
2893.00,0.5866
2892.00,0.5856
2891.00,0.5847
2890.00,0.5840
2889.00,0.5831
2888.00,0.5823
2887.00,0.5815
2886.00,0.5807
2885.00,0.5799
2884.00,0.5791
2883.00,0.5781
2882.00,0.5772
2881.00,0.5762
2880.00,0.5753
2879.00,0.5743
2878.00,0.5732
2877.00,0.5721
2876.00,0.5710
2875.00,0.5699
2874.00,0.5688
2873.00,0.5676
2872.00,0.5661
2871.00,0.5645
2870.00,0.5629
2869.00,0.5613
2868.00,0.5597
2867.00,0.5583
2866.00,0.5568
2865.00,0.5554
2864.00,0.5539
2863.00,0.5526
2862.00,0.5515
2861.00,0.5505
2860.00,0.5495
2859.00,0.5486
2858.00,0.5476
2857.00,0.5468
2856.00,0.5461
2855.00,0.5456
2854.00,0.5454
2853.00,0.5452
2852.00,0.5452
2851.00,0.5454
2850.00,0.5457
2849.00,0.5460
2848.00,0.5464
2847.00,0.5467
2846.00,0.5470
2845.00,0.5472
2844.00,0.5474
2843.00,0.5478
2842.00,0.5482
2841.00,0.5485
2840.00,0.5487
2839.00,0.5486
2838.00,0.5482
2837.00,0.5475
2836.00,0.5466
2835.00,0.5454
2834.00,0.5440
2833.00,0.5425
2832.00,0.5408
2831.00,0.5390
2830.00,0.5372
2829.00,0.5354
2828.00,0.5337
2827.00,0.5321
2826.00,0.5305
2825.00,0.5290
2824.00,0.5275
2823.00,0.5260
2822.00,0.5246
2821.00,0.5231
2820.00,0.5216
2819.00,0.5201
2818.00,0.5185
2817.00,0.5167
2816.00,0.5148
2815.00,0.5127
2814.00,0.5105
2813.00,0.5082
2812.00,0.5056
2811.00,0.5029
2810.00,0.4999
2809.00,0.4967
2808.00,0.4934
2807.00,0.4900
2806.00,0.4867
2805.00,0.4835
2804.00,0.4804
2803.00,0.4775
2802.00,0.4749
2801.00,0.4726
2800.00,0.4705
2799.00,0.4687
2798.00,0.4670
2797.00,0.4655
2796.00,0.4642
2795.00,0.4629
2794.00,0.4618
2793.00,0.4608
2792.00,0.4599
2791.00,0.4590
2790.00,0.4582
2789.00,0.4574
2788.00,0.4566
2787.00,0.4559
2786.00,0.4552
2785.00,0.4544
2784.00,0.4538
2783.00,0.4532
2782.00,0.4526
2781.00,0.4520
2780.00,0.4515
2779.00,0.4509
2778.00,0.4504
2777.00,0.4500
2776.00,0.4495
2775.00,0.4490
2774.00,0.4485
2773.00,0.4481
2772.00,0.4476
2771.00,0.4472
2770.00,0.4468
2769.00,0.4464
2768.00,0.4460
2767.00,0.4457
2766.00,0.4453
2765.00,0.4450
2764.00,0.4447
2763.00,0.4444
2762.00,0.4441
2761.00,0.4438
2760.00,0.4434
2759.00,0.4432
2758.00,0.4429
2757.00,0.4426
2756.00,0.4423
2755.00,0.4420
2754.00,0.4417
2753.00,0.4414
