wavelength,value
4000.00,0.7112
3999.00,0.7110
3998.00,0.7107
3997.00,0.7104
3996.00,0.7101
3995.00,0.7098
3994.00,0.7096
3993.00,0.7095
3992.00,0.7094
3991.00,0.7092
3990.00,0.7090
3989.00,0.7087
3988.00,0.7085
3987.00,0.7084
3986.00,0.7084
3985.00,0.7084
3984.00,0.7083
3983.00,0.7079
3982.00,0.7075
3981.00,0.7069
3980.00,0.7066
3979.00,0.7064
3978.00,0.7064
3977.00,0.7063
3976.00,0.7061
3975.00,0.7058
3974.00,0.7055
3973.00,0.7052
3972.00,0.7049
3971.00,0.7045
3970.00,0.7043
3969.00,0.7040
3968.00,0.7037
3967.00,0.7034
3966.00,0.7030
3965.00,0.7028
3964.00,0.7025
3963.00,0.7023
3962.00,0.7021
3961.00,0.7019
3960.00,0.7016
3959.00,0.7012
3958.00,0.7010
3957.00,0.7009
3956.00,0.7009
3955.00,0.7009
3954.00,0.7008
3953.00,0.7007
3952.00,0.7005
3951.00,0.7002
3950.00,0.6999
3949.00,0.6997
3948.00,0.6994
3947.00,0.6992
3946.00,0.6989
3945.00,0.6985
3944.00,0.6982
3943.00,0.6981
3942.00,0.6980
3941.00,0.6980
3940.00,0.6978
3939.00,0.6976
3938.00,0.6975
3937.00,0.6973
3936.00,0.6972
3935.00,0.6971
3934.00,0.6969
3933.00,0.6966
3932.00,0.6961
3931.00,0.6956
3930.00,0.6952
3929.00,0.6948
3928.00,0.6943
3927.00,0.6940
3926.00,0.6938
3925.00,0.6937
3924.00,0.6933
3923.00,0.6930
3922.00,0.6926
3921.00,0.6923
3920.00,0.6919
3919.00,0.6913
3918.00,0.6908
3917.00,0.6905
3916.00,0.6903
3915.00,0.6901
3914.00,0.6899
3913.00,0.6897
3912.00,0.6893
3911.00,0.6889
3910.00,0.6884
3909.00,0.6880
3908.00,0.6876
3907.00,0.6873
3906.00,0.6870
3905.00,0.6864
3904.00,0.6854
3903.00,0.6845
3902.00,0.6840
3901.00,0.6840
3900.00,0.6841
3899.00,0.6842
3898.00,0.6840
3897.00,0.6837
3896.00,0.6834
3895.00,0.6832
3894.00,0.6832
3893.00,0.6832
3892.00,0.6831
3891.00,0.6829
3890.00,0.6824
3889.00,0.6819
3888.00,0.6817
3887.00,0.6819
3886.00,0.6823
3885.00,0.6823
3884.00,0.6817
3883.00,0.6808
3882.00,0.6801
3881.00,0.6796
3880.00,0.6791
3879.00,0.6785
3878.00,0.6780
3877.00,0.6776
3876.00,0.6774
3875.00,0.6771
3874.00,0.6767
3873.00,0.6761
3872.00,0.6756
3871.00,0.6754
3870.00,0.6752
3869.00,0.6748
3868.00,0.6744
3867.00,0.6742
3866.00,0.6742
3865.00,0.6740
3864.00,0.6736
3863.00,0.6733
3862.00,0.6730
3861.00,0.6726
3860.00,0.6722
3859.00,0.6717
3858.00,0.6712
3857.00,0.6707
3856.00,0.6702
3855.00,0.6696
3854.00,0.6688
3853.00,0.6683
3852.00,0.6689
3851.00,0.6693
3850.00,0.6693
3849.00,0.6693
3848.00,0.6692
3847.00,0.6693
3846.00,0.6694
3845.00,0.6693
3844.00,0.6689
3843.00,0.6681
3842.00,0.6672
3841.00,0.6664
3840.00,0.6658
3839.00,0.6659
3838.00,0.6665
3837.00,0.6671
3836.00,0.6672
3835.00,0.6667
3834.00,0.6661
3833.00,0.6655
3832.00,0.6651
3831.00,0.6647
3830.00,0.6641
3829.00,0.6638
3828.00,0.6636
3827.00,0.6637
3826.00,0.6636
3825.00,0.6631
3824.00,0.6625
3823.00,0.6621
3822.00,0.6620
3821.00,0.6621
3820.00,0.6622
3819.00,0.6620
3818.00,0.6619
3817.00,0.6621
3816.00,0.6621
3815.00,0.6616
3814.00,0.6609
3813.00,0.6603
3812.00,0.6599
3811.00,0.6595
3810.00,0.6592
3809.00,0.6590
3808.00,0.6590
3807.00,0.6589
3806.00,0.6583
3805.00,0.6577
3804.00,0.6573
3803.00,0.6572
3802.00,0.6573
3801.00,0.6572
3800.00,0.6567
3799.00,0.6561
3798.00,0.6559
3797.00,0.6559
3796.00,0.6558
3795.00,0.6555
3794.00,0.6552
3793.00,0.6549
3792.00,0.6548
3791.00,0.6546
3790.00,0.6544
3789.00,0.6541
3788.00,0.6536
3787.00,0.6532
3786.00,0.6529
3785.00,0.6525
3784.00,0.6521
3783.00,0.6518
3782.00,0.6518
3781.00,0.6521
3780.00,0.6526
3779.00,0.6527
3778.00,0.6522
3777.00,0.6514
3776.00,0.6507
3775.00,0.6502
3774.00,0.6498
3773.00,0.6494
3772.00,0.6493
3771.00,0.6493
3770.00,0.6492
3769.00,0.6488
3768.00,0.6484
3767.00,0.6481
3766.00,0.6479
3765.00,0.6476
3764.00,0.6472
3763.00,0.6468
3762.00,0.6466
3761.00,0.6465
3760.00,0.6463
3759.00,0.6460
3758.00,0.6457
3757.00,0.6453
3756.00,0.6450
3755.00,0.6446
3754.00,0.6442
3753.00,0.6436
3752.00,0.6425
3751.00,0.6413
3750.00,0.6411
3749.00,0.6414
3748.00,0.6417
3747.00,0.6419
3746.00,0.6423
3745.00,0.6428
3744.00,0.6431
3743.00,0.6431
3742.00,0.6430
3741.00,0.6430
3740.00,0.6430
3739.00,0.6431
3738.00,0.6432
3737.00,0.6432
3736.00,0.6428
3735.00,0.6422
3734.00,0.6418
3733.00,0.6414
3732.00,0.6409
3731.00,0.6403
3730.00,0.6396
3729.00,0.6390
3728.00,0.6386
3727.00,0.6384
3726.00,0.6381
3725.00,0.6379
3724.00,0.6379
3723.00,0.6380
3722.00,0.6382
3721.00,0.6384
3720.00,0.6384
3719.00,0.6385
3718.00,0.6386
3717.00,0.6385
3716.00,0.6382
3715.00,0.6380
3714.00,0.6379
3713.00,0.6377
3712.00,0.6374
3711.00,0.6374
3710.00,0.6375
3709.00,0.6376
3708.00,0.6374
3707.00,0.6372
3706.00,0.6369
3705.00,0.6367
3704.00,0.6367
3703.00,0.6367
3702.00,0.6368
3701.00,0.6367
3700.00,0.6365
3699.00,0.6365
3698.00,0.6366
3697.00,0.6369
3696.00,0.6370
3695.00,0.6369
3694.00,0.6368
3693.00,0.6369
3692.00,0.6372
3691.00,0.6379
3690.00,0.6390
3689.00,0.6399
3688.00,0.6399
3687.00,0.6391
3686.00,0.6382
3685.00,0.6375
3684.00,0.6372
3683.00,0.6371
3682.00,0.6371
3681.00,0.6372
3680.00,0.6374
3679.00,0.6374
3678.00,0.6373
3677.00,0.6372
3676.00,0.6371
3675.00,0.6374
3674.00,0.6375
3673.00,0.6373
3672.00,0.6372
3671.00,0.6370
3670.00,0.6368
3669.00,0.6367
3668.00,0.6367
3667.00,0.6367
3666.00,0.6367
3665.00,0.6367
3664.00,0.6368
3663.00,0.6371
3662.00,0.6376
3661.00,0.6382
3660.00,0.6387
3659.00,0.6389
3658.00,0.6391
3657.00,0.6390
3656.00,0.6388
3655.00,0.6385
3654.00,0.6383
3653.00,0.6386
3652.00,0.6393
3651.00,0.6401
3650.00,0.6406
3649.00,0.6405
3648.00,0.6405
3647.00,0.6408
3646.00,0.6412
3645.00,0.6415
3644.00,0.6418
3643.00,0.6422
3642.00,0.6427
3641.00,0.6431
3640.00,0.6436
3639.00,0.6441
3638.00,0.6445
3637.00,0.6447
3636.00,0.6450
3635.00,0.6454
3634.00,0.6459
3633.00,0.6463
3632.00,0.6466
3631.00,0.6467
3630.00,0.6469
3629.00,0.6475
3628.00,0.6490
3627.00,0.6505
3626.00,0.6517
3625.00,0.6526
3624.00,0.6535
3623.00,0.6545
3622.00,0.6554
3621.00,0.6563
3620.00,0.6571
3619.00,0.6577
3618.00,0.6584
3617.00,0.6593
3616.00,0.6604
3615.00,0.6615
3614.00,0.6625
3613.00,0.6633
3612.00,0.6641
3611.00,0.6649
3610.00,0.6657
3609.00,0.6667
3608.00,0.6679
3607.00,0.6695
3606.00,0.6710
3605.00,0.6724
3604.00,0.6736
3603.00,0.6748
3602.00,0.6760
3601.00,0.6774
3600.00,0.6789
3599.00,0.6801
3598.00,0.6810
3597.00,0.6816
3596.00,0.6824
3595.00,0.6838
3594.00,0.6856
3593.00,0.6874
3592.00,0.6890
3591.00,0.6902
3590.00,0.6912
3589.00,0.6924
3588.00,0.6943
3587.00,0.6972
3586.00,0.6999
3585.00,0.7018
3584.00,0.7031
3583.00,0.7043
3582.00,0.7055
3581.00,0.7066
3580.00,0.7077
3579.00,0.7089
3578.00,0.7101
3577.00,0.7116
3576.00,0.7132
3575.00,0.7150
3574.00,0.7168
3573.00,0.7186
3572.00,0.7203
3571.00,0.7219
3570.00,0.7234
3569.00,0.7244
3568.00,0.7252
3567.00,0.7264
3566.00,0.7287
3565.00,0.7315
3564.00,0.7341
3563.00,0.7366
3562.00,0.7388
3561.00,0.7409
3560.00,0.7428
3559.00,0.7445
3558.00,0.7462
3557.00,0.7476
3556.00,0.7488
3555.00,0.7501
3554.00,0.7516
3553.00,0.7536
3552.00,0.7558
3551.00,0.7575
3550.00,0.7586
3549.00,0.7593
3548.00,0.7599
3547.00,0.7608
3546.00,0.7617
3545.00,0.7622
3544.00,0.7620
3543.00,0.7611
3542.00,0.7598
3541.00,0.7584
3540.00,0.7570
3539.00,0.7558
3538.00,0.7550
3537.00,0.7545
3536.00,0.7540
3535.00,0.7533
3534.00,0.7527
3533.00,0.7522
3532.00,0.7518
3531.00,0.7517
3530.00,0.7518
3529.00,0.7524
3528.00,0.7534
3527.00,0.7548
3526.00,0.7568
3525.00,0.7590
3524.00,0.7611
3523.00,0.7629
3522.00,0.7641
3521.00,0.7650
3520.00,0.7660
3519.00,0.7676
3518.00,0.7697
3517.00,0.7721
3516.00,0.7746
3515.00,0.7773
3514.00,0.7800
3513.00,0.7824
3512.00,0.7846
3511.00,0.7866
3510.00,0.7888
3509.00,0.7914
3508.00,0.7942
3507.00,0.7972
3506.00,0.8003
3505.00,0.8038
3504.00,0.8080
3503.00,0.8125
3502.00,0.8166
3501.00,0.8198
3500.00,0.8225
3499.00,0.8254
3498.00,0.8286
3497.00,0.8321
3496.00,0.8355
3495.00,0.8388
3494.00,0.8419
3493.00,0.8449
3492.00,0.8478
3491.00,0.8508
3490.00,0.8539
3489.00,0.8572
3488.00,0.8608
3487.00,0.8640
3486.00,0.8667
3485.00,0.8687
3484.00,0.8705
3483.00,0.8726
3482.00,0.8754
3481.00,0.8785
3480.00,0.8812
3479.00,0.8830
3478.00,0.8842
3477.00,0.8850
3476.00,0.8859
3475.00,0.8869
3474.00,0.8881
3473.00,0.8894
3472.00,0.8910
3471.00,0.8927
3470.00,0.8945
3469.00,0.8961
3468.00,0.8972
3467.00,0.8978
3466.00,0.8979
3465.00,0.8978
3464.00,0.8976
3463.00,0.8977
3462.00,0.8981
3461.00,0.8989
3460.00,0.8996
3459.00,0.8999
3458.00,0.8998
3457.00,0.8996
3456.00,0.8996
3455.00,0.8998
3454.00,0.9002
3453.00,0.9005
3452.00,0.9010
3451.00,0.9016
3450.00,0.9024
3449.00,0.9036
3448.00,0.9050
3447.00,0.9065
3446.00,0.9078
3445.00,0.9088
3444.00,0.9099
3443.00,0.9112
3442.00,0.9131
3441.00,0.9154
3440.00,0.9182
3439.00,0.9216
3438.00,0.9255
3437.00,0.9296
3436.00,0.9335
3435.00,0.9371
3434.00,0.9405
3433.00,0.9439
3432.00,0.9478
3431.00,0.9521
3430.00,0.9567
3429.00,0.9611
3428.00,0.9652
3427.00,0.9692
3426.00,0.9733
3425.00,0.9777
3424.00,0.9823
3423.00,0.9872
3422.00,0.9926
3421.00,0.9981
3420.00,1.0034
3419.00,1.0080
3418.00,1.0120
3417.00,1.0158
3416.00,1.0198
3415.00,1.0240
3414.00,1.0280
3413.00,1.0313
3412.00,1.0335
3411.00,1.0348
3410.00,1.0356
3409.00,1.0358
3408.00,1.0353
3407.00,1.0342
3406.00,1.0331
3405.00,1.0321
3404.00,1.0316
3403.00,1.0315
3402.00,1.0313
3401.00,1.0307
3400.00,1.0295
3399.00,1.0278
3398.00,1.0258
3397.00,1.0239
3396.00,1.0223
3395.00,1.0213
3394.00,1.0208
3393.00,1.0205
3392.00,1.0200
3391.00,1.0190
3390.00,1.0175
3389.00,1.0157
3388.00,1.0139
3387.00,1.0125
3386.00,1.0114
3385.00,1.0105
3384.00,1.0099
3383.00,1.0098
3382.00,1.0102
3381.00,1.0109
3380.00,1.0114
3379.00,1.0118
3378.00,1.0120
3377.00,1.0121
3376.00,1.0122
3375.00,1.0122
3374.00,1.0123
3373.00,1.0127
3372.00,1.0136
3371.00,1.0147
3370.00,1.0158
3369.00,1.0165
3368.00,1.0169
3367.00,1.0168
3366.00,1.0163
3365.00,1.0153
3364.00,1.0142
3363.00,1.0135
3362.00,1.0136
3361.00,1.0141
3360.00,1.0143
3359.00,1.0138
3358.00,1.0130
3357.00,1.0124
3356.00,1.0122
3355.00,1.0127
3354.00,1.0137
3353.00,1.0152
3352.00,1.0171
3351.00,1.0188
3350.00,1.0199
3349.00,1.0202
3348.00,1.0198
3347.00,1.0198
3346.00,1.0205
3345.00,1.0221
3344.00,1.0241
3343.00,1.0258
3342.00,1.0273
3341.00,1.0287
3340.00,1.0304
3339.00,1.0323
3338.00,1.0341
3337.00,1.0352
3336.00,1.0355
3335.00,1.0354
3334.00,1.0354
3333.00,1.0359
3332.00,1.0367
3331.00,1.0381
3330.00,1.0402
3329.00,1.0428
3328.00,1.0460
3327.00,1.0493
3326.00,1.0522
3325.00,1.0541
3324.00,1.0552
3323.00,1.0559
3322.00,1.0566
3321.00,1.0575
3320.00,1.0583
3319.00,1.0591
3318.00,1.0602
3317.00,1.0615
3316.00,1.0629
3315.00,1.0645
3314.00,1.0661
3313.00,1.0677
3312.00,1.0695
3311.00,1.0714
3310.00,1.0735
3309.00,1.0755
3308.00,1.0770
3307.00,1.0781
3306.00,1.0790
3305.00,1.0795
3304.00,1.0795
3303.00,1.0791
3302.00,1.0788
3301.00,1.0787
3300.00,1.0789
3299.00,1.0797
3298.00,1.0814
3297.00,1.0838
3296.00,1.0863
3295.00,1.0884
3294.00,1.0903
3293.00,1.0920
3292.00,1.0934
3291.00,1.0944
3290.00,1.0950
3289.00,1.0955
3288.00,1.0961
3287.00,1.0971
3286.00,1.0988
3285.00,1.1008
3284.00,1.1029
3283.00,1.1051
3282.00,1.1073
3281.00,1.1096
3280.00,1.1119
3279.00,1.1140
3278.00,1.1163
3277.00,1.1189
3276.00,1.1216
3275.00,1.1242
3274.00,1.1266
3273.00,1.1288
3272.00,1.1308
3271.00,1.1323
3270.00,1.1333
3269.00,1.1335
3268.00,1.1332
3267.00,1.1328
3266.00,1.1327
3265.00,1.1330
3264.00,1.1335
3263.00,1.1341
3262.00,1.1345
3261.00,1.1348
3260.00,1.1349
3259.00,1.1351
3258.00,1.1356
3257.00,1.1363
3256.00,1.1368
3255.00,1.1368
3254.00,1.1361
3253.00,1.1349
3252.00,1.1337
3251.00,1.1326
3250.00,1.1321
3249.00,1.1321
3248.00,1.1326
3247.00,1.1332
3246.00,1.1334
3245.00,1.1331
3244.00,1.1323
3243.00,1.1314
3242.00,1.1308
3241.00,1.1305
3240.00,1.1302
3239.00,1.1300
3238.00,1.1300
3237.00,1.1301
3236.00,1.1305
3235.00,1.1311
3234.00,1.1316
3233.00,1.1316
3232.00,1.1306
3231.00,1.1286
3230.00,1.1261
3229.00,1.1233
3228.00,1.1206
3227.00,1.1181
3226.00,1.1157
3225.00,1.1134
3224.00,1.1111
3223.00,1.1089
3222.00,1.1071
3221.00,1.1058
3220.00,1.1044
3219.00,1.1028
3218.00,1.1009
3217.00,1.0990
3216.00,1.0972
3215.00,1.0956
3214.00,1.0939
3213.00,1.0919
3212.00,1.0895
3211.00,1.0873
3210.00,1.0857
3209.00,1.0847
3208.00,1.0837
3207.00,1.0827
3206.00,1.0815
3205.00,1.0800
3204.00,1.0783
3203.00,1.0767
3202.00,1.0753
3201.00,1.0739
3200.00,1.0724
3199.00,1.0708
3198.00,1.0694
3197.00,1.0680
3196.00,1.0667
3195.00,1.0657
3194.00,1.0650
3193.00,1.0644
3192.00,1.0635
3191.00,1.0625
3190.00,1.0612
3189.00,1.0599
3188.00,1.0583
3187.00,1.0566
3186.00,1.0552
3185.00,1.0541
3184.00,1.0530
3183.00,1.0520
3182.00,1.0509
3181.00,1.0498
3180.00,1.0486
3179.00,1.0472
3178.00,1.0458
3177.00,1.0444
3176.00,1.0430
3175.00,1.0416
3174.00,1.0403
3173.00,1.0389
3172.00,1.0376
3171.00,1.0363
3170.00,1.0349
3169.00,1.0335
3168.00,1.0320
3167.00,1.0306
3166.00,1.0292
3165.00,1.0279
3164.00,1.0264
3163.00,1.0248
3162.00,1.0232
3161.00,1.0217
3160.00,1.0203
3159.00,1.0192
3158.00,1.0182
3157.00,1.0174
3156.00,1.0166
3155.00,1.0159
3154.00,1.0153
3153.00,1.0143
3152.00,1.0126
3151.00,1.0101
3150.00,1.0072
3149.00,1.0040
3148.00,1.0010
3147.00,0.9983
3146.00,0.9960
3145.00,0.9940
3144.00,0.9921
3143.00,0.9904
3142.00,0.9892
3141.00,0.9884
3140.00,0.9876
3139.00,0.9863
3138.00,0.9842
3137.00,0.9815
3136.00,0.9784
3135.00,0.9753
3134.00,0.9726
3133.00,0.9703
3132.00,0.9683
3131.00,0.9665
3130.00,0.9646
3129.00,0.9623
3128.00,0.9594
3127.00,0.9562
3126.00,0.9531
3125.00,0.9504
3124.00,0.9480
3123.00,0.9459
3122.00,0.9440
3121.00,0.9421
3120.00,0.9399
3119.00,0.9374
3118.00,0.9347
3117.00,0.9318
3116.00,0.9289
3115.00,0.9258
3114.00,0.9227
3113.00,0.9195
3112.00,0.9164
3111.00,0.9136
3110.00,0.9112
3109.00,0.9090
3108.00,0.9066
3107.00,0.9040
3106.00,0.9014
3105.00,0.8989
3104.00,0.8968
3103.00,0.8951
3102.00,0.8938
3101.00,0.8927
3100.00,0.8916
3099.00,0.8902
3098.00,0.8884
3097.00,0.8863
3096.00,0.8843
3095.00,0.8825
3094.00,0.8813
3093.00,0.8804
3092.00,0.8793
3091.00,0.8781
3090.00,0.8766
3089.00,0.8749
3088.00,0.8732
3087.00,0.8716
3086.00,0.8703
3085.00,0.8690
3084.00,0.8676
3083.00,0.8662
3082.00,0.8647
3081.00,0.8631
3080.00,0.8614
3079.00,0.8596
3078.00,0.8578
3077.00,0.8559
3076.00,0.8539
3075.00,0.8519
3074.00,0.8499
3073.00,0.8479
3072.00,0.8459
3071.00,0.8440
3070.00,0.8423
3069.00,0.8406
3068.00,0.8390
3067.00,0.8374
3066.00,0.8358
3065.00,0.8341
3064.00,0.8323
3063.00,0.8304
3062.00,0.8285
3061.00,0.8266
3060.00,0.8247
3059.00,0.8227
3058.00,0.8206
3057.00,0.8184
3056.00,0.8160
3055.00,0.8135
3054.00,0.8113
3053.00,0.8091
3052.00,0.8071
3051.00,0.8053
3050.00,0.8034
3049.00,0.8014
3048.00,0.7992
3047.00,0.7968
3046.00,0.7944
3045.00,0.7922
3044.00,0.7900
3043.00,0.7882
3042.00,0.7873
3041.00,0.7876
3040.00,0.7896
3039.00,0.7935
3038.00,0.7986
3037.00,0.8042
3036.00,0.8091
3035.00,0.8135
3034.00,0.8182
3033.00,0.8238
3032.00,0.8302
3031.00,0.8355
3030.00,0.8380
3029.00,0.8367
3028.00,0.8318
3027.00,0.8247
3026.00,0.8166
3025.00,0.8083
3024.00,0.8006
3023.00,0.7938
3022.00,0.7879
3021.00,0.7827
3020.00,0.7780
3019.00,0.7738
3018.00,0.7701
3017.00,0.7667
3016.00,0.7636
3015.00,0.7606
3014.00,0.7578
3013.00,0.7552
3012.00,0.7526
3011.00,0.7502
3010.00,0.7479
3009.00,0.7457
3008.00,0.7434
3007.00,0.7413
3006.00,0.7393
3005.00,0.7374
3004.00,0.7356
3003.00,0.7338
3002.00,0.7322
3001.00,0.7308
3000.00,0.7293
2999.00,0.7280
2998.00,0.7268
2997.00,0.7256
2996.00,0.7244
2995.00,0.7233
2994.00,0.7224
2993.00,0.7216
2992.00,0.7206
2991.00,0.7196
2990.00,0.7187
2989.00,0.7177
2988.00,0.7167
2987.00,0.7157
2986.00,0.7147
2985.00,0.7138
2984.00,0.7127
2983.00,0.7117
2982.00,0.7108
2981.00,0.7099
2980.00,0.7090
2979.00,0.7079
2978.00,0.7069
2977.00,0.7059
2976.00,0.7050
2975.00,0.7041
2974.00,0.7032
2973.00,0.7022
2972.00,0.7011
2971.00,0.7000
2970.00,0.6990
2969.00,0.6980
2968.00,0.6969
2967.00,0.6958
2966.00,0.6947
2965.00,0.6936
2964.00,0.6924
2963.00,0.6912
2962.00,0.6900
2961.00,0.6890
2960.00,0.6880
2959.00,0.6871
2958.00,0.6862
2957.00,0.6855
2956.00,0.6846
2955.00,0.6838
2954.00,0.6829
2953.00,0.6820
2952.00,0.6811
2951.00,0.6800
2950.00,0.6790
2949.00,0.6781
2948.00,0.6771
2947.00,0.6761
2946.00,0.6752
2945.00,0.6743
2944.00,0.6733
2943.00,0.6724
2942.00,0.6715
2941.00,0.6707
2940.00,0.6699
2939.00,0.6690
2938.00,0.6681
2937.00,0.6672
2936.00,0.6662
2935.00,0.6652
2934.00,0.6642
2933.00,0.6633
2932.00,0.6624
2931.00,0.6616
2930.00,0.6607
2929.00,0.6599
2928.00,0.6590
2927.00,0.6581
2926.00,0.6573
2925.00,0.6565
2924.00,0.6557
2923.00,0.6549
2922.00,0.6543
2921.00,0.6537
2920.00,0.6531
2919.00,0.6523
2918.00,0.6516
2917.00,0.6509
2916.00,0.6502
2915.00,0.6496
2914.00,0.6489
2913.00,0.6483
2912.00,0.6476
2911.00,0.6469
2910.00,0.6461
2909.00,0.6454
2908.00,0.6444
2907.00,0.6435
2906.00,0.6425
2905.00,0.6415
2904.00,0.6405
2903.00,0.6394
2902.00,0.6382
2901.00,0.6371
2900.00,0.6359
2899.00,0.6347
2898.00,0.6338
2897.00,0.6330
2896.00,0.6323
2895.00,0.6316
2894.00,0.6308
2893.00,0.6301
2892.00,0.6295
2891.00,0.6290
2890.00,0.6285
2889.00,0.6281
2888.00,0.6277
2887.00,0.6273
2886.00,0.6270
2885.00,0.6268
2884.00,0.6266
2883.00,0.6265
2882.00,0.6263
2881.00,0.6261
2880.00,0.6258
2879.00,0.6256
2878.00,0.6254
2877.00,0.6252
2876.00,0.6251
2875.00,0.6251
2874.00,0.6251
2873.00,0.6251
2872.00,0.6251
2871.00,0.6250
2870.00,0.6250
2869.00,0.6251
2868.00,0.6253
2867.00,0.6255
2866.00,0.6257
2865.00,0.6258
2864.00,0.6259
2863.00,0.6260
2862.00,0.6261
2861.00,0.6262
2860.00,0.6261
2859.00,0.6259
2858.00,0.6256
2857.00,0.6252
2856.00,0.6247
2855.00,0.6240
2854.00,0.6234
2853.00,0.6227
2852.00,0.6220
2851.00,0.6214
2850.00,0.6210
2849.00,0.6205
2848.00,0.6200
2847.00,0.6193
2846.00,0.6185
2845.00,0.6177
2844.00,0.6170
2843.00,0.6165
2842.00,0.6163
2841.00,0.6163
2840.00,0.6163
2839.00,0.6163
2838.00,0.6163
2837.00,0.6162
2836.00,0.6161
2835.00,0.6159
2834.00,0.6158
2833.00,0.6157
2832.00,0.6155
2831.00,0.6153
2830.00,0.6149
2829.00,0.6145
2828.00,0.6139
2827.00,0.6133
2826.00,0.6125
2825.00,0.6117
2824.00,0.6107
2823.00,0.6095
2822.00,0.6083
2821.00,0.6071
2820.00,0.6058
2819.00,0.6044
2818.00,0.6030
2817.00,0.6014
2816.00,0.5999
2815.00,0.5983
2814.00,0.5969
2813.00,0.5954
2812.00,0.5939
2811.00,0.5924
2810.00,0.5907
2809.00,0.5890
2808.00,0.5872
2807.00,0.5854
2806.00,0.5837
2805.00,0.5821
2804.00,0.5806
2803.00,0.5791
2802.00,0.5777
2801.00,0.5765
2800.00,0.5754
2799.00,0.5743
2798.00,0.5732
2797.00,0.5720
2796.00,0.5708
2795.00,0.5697
2794.00,0.5688
2793.00,0.5680
2792.00,0.5673
2791.00,0.5667
2790.00,0.5661
2789.00,0.5656
2788.00,0.5649
2787.00,0.5642
2786.00,0.5636
2785.00,0.5630
2784.00,0.5626
2783.00,0.5621
2782.00,0.5617
2781.00,0.5613
2780.00,0.5609
2779.00,0.5605
2778.00,0.5601
2777.00,0.5599
2776.00,0.5597
2775.00,0.5594
2774.00,0.5592
2773.00,0.5589
2772.00,0.5584
2771.00,0.5580
2770.00,0.5576
2769.00,0.5573
2768.00,0.5571
2767.00,0.5568
2766.00,0.5565
2765.00,0.5562
2764.00,0.5559
2763.00,0.5556
2762.00,0.5555
2761.00,0.5554
2760.00,0.5554
2759.00,0.5554
2758.00,0.5555
2757.00,0.5557
2756.00,0.5560
2755.00,0.5563
2754.00,0.5567
2753.00,0.5572
